Freq[Hz]     dBSPL  Phase[Deg]
5.00000     39.825     0.000
5.07273     39.825     0.000
5.14651     39.825     0.000
5.22137     39.825     0.000
5.29732     39.825     0.000
5.37437     39.825     0.000
5.45254     39.825     0.000
5.53185     39.825     0.000
5.61231     39.825     0.000
5.69394     39.825     0.000
5.77676     39.825     0.000
5.86079     39.825     0.000
5.94604     39.825     0.000
6.03252     39.825     0.000
6.12027     39.825     0.000
6.20929     39.825     0.000
6.29961     39.825     0.000
6.39124     39.825     0.000
6.48420     39.825     0.000
6.57851     39.825     0.000
6.67420     39.825     0.000
6.77128     39.825     0.000
6.86977     39.825     0.000
6.96969     39.825     0.000
7.07107     39.825     0.000
7.17392     39.825     0.000
7.27827     39.825     0.000
7.38413     39.825     0.000
7.49154     39.825     0.000
7.60050     39.825     0.000
7.71105     39.825     0.000
7.82321     39.825     0.000
7.93701     39.825     0.000
8.05245     39.825     0.000
8.16958     39.825     0.000
8.28841     39.825     0.000
8.40896     39.825     0.000
8.53128     39.825     0.000
8.65537     39.825     0.000
8.78126     39.825     0.000
8.90899     39.825     0.000
9.03857     39.825     0.000
9.17004     39.825     0.000
9.30342     39.825     0.000
9.43874     39.825     0.000
9.57603     39.825     0.000
9.71532     39.825     0.000
9.85663     39.825     0.000
10.0000     39.825     0.000
10.1455     39.825     0.000
10.2930     39.825     0.000
10.4427     39.825     0.000
10.5946     39.825     0.000
10.7487     39.825     0.000
10.9051     39.825     0.000
11.0637     39.825     0.000
11.2246     39.825     0.000
11.3879     39.825     0.000
11.5535     39.825     0.000
11.7216     39.825     0.000
11.8921     39.825     0.000
12.0650     39.825     0.000
12.2405     39.825     0.000
12.4186     39.825     0.000
12.5992     39.825     0.000
12.7825     39.825     0.000
12.9684     39.825     0.000
13.1570     39.825     0.000
13.3484     39.825     0.000
13.5426     39.825     0.000
13.7395     39.825     0.000
13.9394     39.825     0.000
14.1421     39.825     0.000
14.3478     39.825     0.000
14.5565     39.825     0.000
14.7683     39.825     0.000
14.9831     39.825     0.000
15.2010     39.825     0.000
15.4221     39.825     0.000
15.6464     39.825     0.000
15.8740     39.825     0.000
16.1049     39.825     0.000
16.3392     39.825     0.000
16.5768     39.825     0.000
16.8179     39.825     0.000
17.0626     39.825     0.000
17.3107     39.825     0.000
17.5625     39.825     0.000
17.8180     39.825     0.000
18.0771     39.825     0.000
18.3401     39.825     0.000
18.6068     39.825     0.000
18.8775     39.825     0.000
19.1521     39.825     0.000
19.4306     39.825     0.000
19.7133     39.825     0.000
20.0000     39.825     0.000
20.2909     39.825     0.000
20.5860     39.825     0.000
20.8855     39.825     0.000
21.1893     39.825     0.000
21.4975     39.825     0.000
21.8102     39.825     0.000
22.1274     39.825     0.000
22.4492     39.825     0.000
22.7758     39.825     0.000
23.1071     39.825     0.000
23.4432     39.825     0.000
23.7841     39.825     0.000
24.1301     39.825     0.000
24.4811     39.825     0.000
24.8372     39.825     0.000
25.1984     39.825     0.000
25.5649     39.825     0.000
25.9368     39.825     0.000
26.3141     39.825     0.000
26.6968     39.825     0.000
27.0851     39.825     0.000
27.4791     39.825     0.000
27.8788     39.825     0.000
28.2843     39.825     0.000
28.6957     39.825     0.000
29.1131     39.825     0.000
29.5365     39.825     0.000
29.9661     39.825     0.000
30.4020     39.825     0.000
30.8442     39.825     0.000
31.2929     39.825     0.000
31.7480     39.825     0.000
32.2098     39.825     0.000
32.6783     39.825     0.000
33.1536     39.825     0.000
33.6359     39.825     0.000
34.1251     39.825     0.000
34.6215     39.825     0.000
35.1250     39.825     0.000
35.6359     39.825     0.000
36.1543     39.825     0.000
36.6802     39.825     0.000
37.2137     39.825     0.000
37.7550     39.825     0.000
38.3041     39.825     0.000
38.8613     39.825     0.000
39.4265     39.825     0.000
40.0000     39.825     0.000
40.5818     39.825     0.000
41.1721     39.825     0.000
41.7710     39.825     0.000
42.3785     39.825     0.000
42.9949     39.825     0.000
43.6203     39.825     0.000
44.2548     39.825     0.000
44.8985     39.825     0.000
45.5515     39.825     0.000
46.2141     39.825     0.000
46.8863     39.825     0.000
47.5683     39.825     0.000
48.2602     39.825     0.000
48.9621     39.825     0.000
49.6743     39.825     0.000
50.3968     39.825     0.000
51.1299     39.825     0.000
51.8736     39.825     0.000
52.6281     39.825     0.000
53.3936     39.825     0.000
54.1702     39.825     0.000
54.9581     39.825     0.000
55.7575     39.825     0.000
56.5685     39.825     0.000
57.3914     39.825     0.000
58.2261     39.825     0.000
59.0730     39.825     0.000
59.9323     39.825     0.000
60.8040     39.825     0.000
61.6884     39.825     0.000
62.5857     39.825     0.000
63.4960     39.825     0.000
64.4196     39.825     0.000
65.3566     39.825     0.000
66.3073     39.825     0.000
67.2717     39.825     0.000
68.2502     39.825     0.000
69.2429     39.825     0.000
70.2501     39.825     0.000
71.2719     39.825     0.000
72.3086     39.825     0.000
73.3603     39.825     0.000
74.4274     39.825     0.000
75.5099     39.825     0.000
76.6083     39.825     0.000
77.7226     39.825     0.000
78.8531     39.825     0.000
80.0000     39.825     0.000
81.1636     39.825     0.000
82.3442     39.825     0.000
83.5419     39.825     0.000
84.7570     39.825     0.000
85.9899     39.825     0.000
87.2406     39.825     0.000
88.5096     39.825     0.000
89.7970     39.825     0.000
91.1031     39.825     0.000
92.4282     39.825     0.000
93.7726     39.825     0.000
95.1366     39.825     0.000
96.5204     39.825     0.000
97.9243     39.825     0.000
99.3486     39.825     0.000
100.794     39.825     0.000
102.260     39.825     0.000
103.747     39.825     0.000
105.256     39.825     0.000
106.787     39.825     0.000
108.340     39.825     0.000
109.916     39.825     0.000
111.515     39.825     0.000
113.137     39.825     0.000
114.783     39.825     0.000
116.452     39.825     0.000
118.146     39.825     0.000
119.865     39.825     0.000
121.608     39.825     0.000
123.377     39.825     0.000
125.171     39.825     0.000
126.992     39.825     0.000
128.839     39.825     0.000
130.713     39.825     0.000
132.615     39.825     0.000
134.543     39.825     0.000
136.500     39.825     0.000
138.486     39.825     0.000
140.500     39.825     0.000
142.544     39.825     0.000
144.617     39.825     0.000
146.721     39.825     0.000
148.855     39.825     0.000
151.020     39.825     0.000
153.217     39.825     0.000
155.445     39.825     0.000
157.706     39.825     0.000
160.000     39.825     0.000
162.327     39.825     0.000
164.688     39.825     0.000
167.084     39.825     0.000
169.514     39.825     0.000
171.980     39.825     0.000
174.481     39.825     0.000
177.019     39.825     0.000
179.594     39.825     0.000
182.206     39.825     0.000
184.856     39.825     0.000
187.545     39.825     0.000
190.273     39.825     0.000
193.041     39.825     0.000
195.849     39.825     0.000
198.697     39.825     0.000
201.587     39.825     0.000
204.520     39.825     0.000
207.494     39.825     0.000
210.512     39.825     0.000
213.574     39.825     0.000
216.681     39.825     0.000
219.833     39.825     0.000
223.030     39.825     0.000
226.274     39.825     0.000
229.565     39.825     0.000
232.905     39.825     0.000
236.292     39.825     0.000
239.729     39.825     0.000
243.216     39.825     0.000
246.754     39.825     0.000
250.343     39.825     0.000
253.984     39.825     0.000
257.678     39.825     0.000
261.426     39.825     0.000
265.229     39.825     0.000
269.087     39.825     0.000
273.001     39.825     0.000
276.972     39.825     0.000
281.000     39.825     0.000
285.088     39.825     0.000
289.234     39.825     0.000
293.441     39.825     0.000
297.709     39.825     0.000
302.040     39.825     0.000
306.433     39.825     0.000
310.890     39.825     0.000
315.412     39.825     0.000
320.000     39.825     0.000
324.655     39.825     0.000
329.377     39.825     0.000
334.168     39.825     0.000
339.028     39.825     0.000
343.959     39.825     0.000
348.962     39.825     0.000
354.038     39.825     0.000
359.188     39.825     0.000
364.412     39.825     0.000
369.713     39.825     0.000
375.090     39.825     0.000
380.546     39.825     0.000
386.081     39.825     0.000
391.697     39.825     0.000
397.394     39.825     0.000
403.175     39.825     0.000
409.039     39.825     0.000
414.989     39.825     0.000
421.025     39.825     0.000
427.149     39.825     0.000
433.362     39.825     0.000
439.665     39.825     0.000
446.060     39.825     0.000
452.548     39.825     0.000
459.131     39.825     0.000
465.809     39.825     0.000
472.584     39.825     0.000
479.458     39.825     0.000
486.432     39.825     0.000
493.507     39.825     0.000
500.686     39.825     0.000
507.968     39.825     0.000
515.357     39.825     0.000
522.853     39.825     0.000
530.458     39.825     0.000
538.174     39.825     0.000
546.002     39.825     0.000
553.943     39.825     0.000
562.001     39.825     0.000
570.175     39.825     0.000
578.469     39.825     0.000
586.883     39.825     0.000
595.419     39.825     0.000
604.080     39.825     0.000
612.866     39.825     0.000
621.780     39.825     0.000
630.824     39.825     0.000
640.000     39.825     0.000
649.309     39.825     0.000
658.753     39.825     0.000
668.335     39.825     0.000
678.056     39.825     0.000
687.919     39.825     0.000
697.925     39.825     0.000
708.077     39.825     0.000
718.376     39.825     0.000
728.825     39.825     0.000
739.426     39.825     0.000
750.181     39.825     0.000
761.093     39.825     0.000
772.163     39.825     0.000
783.394     39.825     0.000
794.789     39.825     0.000
806.349     39.825     0.000
818.078     39.825     0.000
829.977     39.825     0.000
842.050     39.825     0.000
854.298     39.825     0.000
866.724     39.825     0.000
879.330     39.825     0.000
892.120     39.825     0.000
905.097     39.825     0.000
918.262     39.825     0.000
931.618     39.825     0.000
945.169     39.825     0.000
958.917     39.825     0.000
972.864     39.825     0.000
987.015     39.825     0.000
1001.37     39.825     0.000
1015.94     39.825     0.000
1030.71     39.825     0.000
1045.71     39.825     0.000
1060.92     39.825     0.000
1076.35     39.825     0.000
1092.00     39.825     0.000
1107.89     39.825     0.000
1124.00     39.825     0.000
1140.35     39.825     0.000
1156.94     39.825     0.000
1173.77     39.825     0.000
1190.84     39.825     0.000
1208.16     39.825     0.000
1225.73     39.825     0.000
1243.56     39.825     0.000
1261.65     39.825     0.000
1280.00     39.825     0.000
1298.62     39.825     0.000
1317.51     39.825     0.000
1336.67     39.825     0.000
1356.11     39.825     0.000
1375.84     39.825     0.000
1395.85     39.825     0.000
1416.15     39.825     0.000
1436.75     39.825     0.000
1457.65     39.825     0.000
1478.85     39.825     0.000
1500.36     39.825     0.000
1522.19     39.825     0.000
1544.33     39.825     0.000
1566.79     39.825     0.000
1589.58     39.825     0.000
1612.70     39.825     0.000
1636.16     39.825     0.000
1659.95     39.825     0.000
1684.10     39.825     0.000
1708.60     39.825     0.000
1733.45     39.825     0.000
1758.66     39.825     0.000
1784.24     39.825     0.000
1810.19     39.825     0.000
1836.52     39.825     0.000
1863.24     39.825     0.000
1890.34     39.825     0.000
1917.83     39.825     0.000
1945.73     39.825     0.000
1974.03     39.825     0.000
2002.74     39.825     0.000
2031.87     39.825     0.000
2061.43     39.825     0.000
2091.41     39.825     0.000
2121.83     39.825     0.000
2152.69     39.825     0.000
2184.01     39.825     0.000
2215.77     39.825     0.000
2248.00     39.825     0.000
2280.70     39.825     0.000
2313.87     39.825     0.000
2347.53     39.825     0.000
2381.68     39.825     0.000
2416.32     39.825     0.000
2451.46     39.825     0.000
2487.12     39.825     0.000
2523.30     39.825     0.000
2560.00     39.825     0.000
2597.24     39.825     0.000
2635.01     39.825     0.000
2673.34     39.825     0.000
2712.23     39.825     0.000
2751.68     39.825     0.000
2791.70     39.825     0.000
2832.31     39.825     0.000
2873.50     39.825     0.000
2915.30     39.825     0.000
2957.70     39.825     0.000
3000.72     39.825     0.000
3044.37     39.825     0.000
3088.65     39.825     0.000
3133.58     39.825     0.000
3179.16     39.825     0.000
3225.40     39.825     0.000
3272.31     39.825     0.000
3319.91     39.825     0.000
3368.20     39.825     0.000
3417.19     39.825     0.000
3466.89     39.825     0.000
3517.32     39.825     0.000
3568.48     39.825     0.000
3620.39     39.825     0.000
3673.05     39.825     0.000
3726.47     39.825     0.000
3780.67     39.825     0.000
3835.67     39.825     0.000
3891.46     39.825     0.000
3948.06     39.825     0.000
4005.49     39.825     0.000
4063.75     39.825     0.000
4122.86     39.825     0.000
4182.82     39.825     0.000
4243.66     39.825     0.000
4305.39     39.825     0.000
4368.01     39.825     0.000
4431.55     39.825     0.000
4496.01     39.825     0.000
4561.40     39.825     0.000
4627.75     39.825     0.000
4695.06     39.825     0.000
4763.35     39.825     0.000
4832.64     39.825     0.000
4902.93     39.825     0.000
4974.24     39.825     0.000
5046.60     39.825     0.000
5120.00     39.825     0.000
5194.47     39.825     0.000
5270.03     39.825     0.000
5346.68     39.825     0.000
5424.45     39.825     0.000
5503.35     39.825     0.000
5583.40     39.825     0.000
5664.61     39.825     0.000
5747.01     39.825     0.000
5830.60     39.825     0.000
5915.41     39.825     0.000
6001.45     39.825     0.000
6088.74     39.825     0.000
6177.30     39.825     0.000
6267.15     39.825     0.000
6358.31     39.825     0.000
6450.80     39.825     0.000
6544.62     39.825     0.000
6639.82     39.825     0.000
6736.40     39.825     0.000
6834.38     39.825     0.000
6933.79     39.825     0.000
7034.64     39.825     0.000
7136.96     39.825     0.000
7240.77     39.825     0.000
7346.09     39.825     0.000
7452.94     39.825     0.000
7561.35     39.825     0.000
7671.33     39.825     0.000
7782.91     39.825     0.000
7896.12     39.825     0.000
8010.97     39.825     0.000
8127.49     39.825     0.000
8245.71     39.825     0.000
8365.65     39.825     0.000
8487.33     39.825     0.000
8610.78     39.825     0.000
8736.03     39.825     0.000
8863.09     39.825     0.000
8992.01     39.825     0.000
9122.80     39.825     0.000
9255.50     39.825     0.000
9390.12     39.825     0.000
9526.70     39.825     0.000
9665.27     39.825     0.000
9805.86     39.825     0.000
9948.49     39.825     0.000
10093.2     39.825     0.000
10240.0     39.825     0.000
10388.9     39.825     0.000
10540.1     39.825     0.000
10693.4     39.825     0.000
10848.9     39.825     0.000
11006.7     39.825     0.000
11166.8     39.825     0.000
11329.2     39.825     0.000
11494.0     39.825     0.000
11661.2     39.825     0.000
11830.8     39.825     0.000
12002.9     39.825     0.000
12177.5     39.825     0.000
12354.6     39.825     0.000
12534.3     39.825     0.000
12716.6     39.825     0.000
12901.6     39.825     0.000
13089.2     39.825     0.000
13279.6     39.825     0.000
13472.8     39.825     0.000
13668.8     39.825     0.000
13867.6     39.825     0.000
14069.3     39.825     0.000
14273.9     39.825     0.000
14481.5     39.825     0.000
14692.2     39.825     0.000
14905.9     39.825     0.000
15122.7     39.825     0.000
15342.7     39.825     0.000
15565.8     39.825     0.000
15792.2     39.825     0.000
16021.9     39.825     0.000
16255.0     39.825     0.000
16491.4     39.825     0.000
16731.3     39.825     0.000
16974.7     39.825     0.000
17221.6     39.825     0.000
17472.1     39.825     0.000
17726.2     39.825     0.000
17984.0     39.825     0.000
18245.6     39.825     0.000
18511.0     39.825     0.000
18780.2     39.825     0.000
19053.4     39.825     0.000
19330.5     39.825     0.000
19611.7     39.825     0.000
19897.0     39.825     0.000
20186.4     39.825     0.000
20480.0     39.825     0.000
20777.9     39.825     0.000
21080.1     39.825     0.000
21386.7     39.825     0.000
21697.8     39.825     0.000
22013.4     39.825     0.000
22333.6     39.825     0.000
22658.4     39.825     0.000
22988.0     39.825     0.000
23322.4     39.825     0.000
23661.6     39.825     0.000
24005.8     39.825     0.000
24355.0     39.825     0.000
24709.2     39.825     0.000
25068.6     39.825     0.000
25433.2     39.825     0.000
25803.2     39.825     0.000
26178.5     39.825     0.000
26559.3     39.825     0.000
26945.6     39.825     0.000
27337.5     39.825     0.000
27735.2     39.825     0.000
28138.6     39.825     0.000
28547.9     39.825     0.000
28963.1     39.825     0.000
29384.4     39.825     0.000
29811.8     39.825     0.000
30245.4     39.825     0.000
30685.3     39.825     0.000
31131.7     39.825     0.000
31584.5     39.825     0.000
32043.9     39.825     0.000
32510.0     39.825     0.000
32982.8     39.825     0.000
33462.6     39.825     0.000
33949.3     39.825     0.000
34443.1     39.825     0.000
34944.1     39.825     0.000
35452.4     39.825     0.000
35968.0     39.825     0.000
36491.2     39.825     0.000
37022.0     39.825     0.000
37560.5     39.825     0.000
38106.8     39.825     0.000
38661.1     39.825     0.000
39223.4     39.825     0.000
39793.9     39.825     0.000
